# curve data: 842.dat
#TITLE=FILTER 842  Transmission Curve;DTITL= 2.0;LABX=Lambda [nm];LABY=Transmission;DLABL= 1.0;NGEOM;USER;GRID;XSPACE=0
# source: https://www.eso.org/sci/facilities/lasilla/instruments/wfi/inst/filters.html
390.000000 7.000000e-05
391.000000 1.700000e-04
391.500000 3.000000e-04
392.000000 5.700000e-04
392.500000 1.130000e-03
393.000000 2.350000e-03
393.500000 5.180000e-03
394.000000 1.169000e-02
394.500000 2.438000e-02
395.000000 4.379000e-02
395.500000 6.418000e-02
396.000000 8.173000e-02
396.500000 9.350000e-02
397.000000 1.001100e-01
397.500000 1.058700e-01
398.000000 1.157600e-01
398.500000 1.323300e-01
399.000000 1.558300e-01
399.500000 1.844500e-01
400.000000 2.153600e-01
400.500000 2.461000e-01
401.000000 2.732400e-01
401.500000 2.941600e-01
402.000000 3.092500e-01
402.500000 3.203000e-01
403.000000 3.297800e-01
403.500000 3.398600e-01
404.000000 3.520800e-01
404.500000 3.671400e-01
405.000000 3.849300e-01
405.500000 4.045200e-01
406.000000 4.252100e-01
406.500000 4.461400e-01
407.000000 4.664000e-01
407.500000 4.847000e-01
408.000000 5.002800e-01
408.500000 5.129700e-01
409.000000 5.224300e-01
409.500000 5.295400e-01
410.000000 5.352100e-01
410.500000 5.394600e-01
411.000000 5.432500e-01
411.500000 5.469300e-01
412.000000 5.513500e-01
412.500000 5.559800e-01
413.000000 5.619800e-01
413.500000 5.683000e-01
414.000000 5.756300e-01
414.500000 5.833800e-01
415.000000 5.915100e-01
415.500000 6.001900e-01
416.000000 6.090100e-01
416.500000 6.179100e-01
417.000000 6.262500e-01
417.500000 6.341700e-01
418.000000 6.419000e-01
418.500000 6.493000e-01
419.000000 6.567300e-01
419.500000 6.638100e-01
420.000000 6.708500e-01
420.500000 6.775800e-01
421.000000 6.843600e-01
421.500000 6.904600e-01
422.000000 6.962300e-01
422.500000 7.018300e-01
423.000000 7.074200e-01
423.500000 7.127900e-01
424.000000 7.179200e-01
424.500000 7.228100e-01
425.000000 7.272500e-01
425.500000 7.316200e-01
426.000000 7.357700e-01
426.500000 7.393500e-01
427.000000 7.429500e-01
427.500000 7.463600e-01
428.000000 7.497100e-01
428.500000 7.526400e-01
429.000000 7.558200e-01
429.500000 7.585200e-01
430.000000 7.612400e-01
430.500000 7.638200e-01
431.000000 7.668600e-01
431.500000 7.698800e-01
432.000000 7.728500e-01
432.500000 7.759600e-01
433.000000 7.794800e-01
433.500000 7.825600e-01
434.000000 7.863100e-01
434.500000 7.900400e-01
435.000000 7.937300e-01
435.500000 7.975000e-01
436.000000 8.011400e-01
436.500000 8.047500e-01
437.000000 8.081900e-01
437.500000 8.113500e-01
438.000000 8.142100e-01
438.500000 8.168600e-01
439.000000 8.189400e-01
439.500000 8.206600e-01
440.000000 8.220100e-01
440.500000 8.234000e-01
441.000000 8.244000e-01
441.500000 8.251100e-01
442.000000 8.253200e-01
442.500000 8.258500e-01
443.000000 8.261000e-01
443.500000 8.263600e-01
444.000000 8.267200e-01
444.500000 8.272100e-01
445.000000 8.280600e-01
445.500000 8.289400e-01
446.000000 8.302100e-01
446.500000 8.319300e-01
447.000000 8.341200e-01
447.500000 8.362900e-01
448.000000 8.391900e-01
448.500000 8.418100e-01
449.000000 8.448700e-01
449.500000 8.482500e-01
450.000000 8.514500e-01
450.500000 8.549600e-01
451.000000 8.585300e-01
451.500000 8.615200e-01
452.000000 8.645100e-01
452.500000 8.672700e-01
453.000000 8.695300e-01
453.500000 8.713300e-01
454.000000 8.730600e-01
454.500000 8.739600e-01
455.000000 8.747100e-01
455.500000 8.749400e-01
456.000000 8.747900e-01
456.500000 8.746900e-01
457.000000 8.739400e-01
457.500000 8.730200e-01
458.000000 8.717700e-01
458.500000 8.710000e-01
459.000000 8.698600e-01
459.500000 8.686000e-01
460.000000 8.676800e-01
460.500000 8.667300e-01
461.000000 8.664400e-01
461.500000 8.659900e-01
463.000000 8.656100e-01
463.500000 8.662900e-01
464.000000 8.672100e-01
464.500000 8.684500e-01
465.000000 8.697900e-01
465.500000 8.714700e-01
466.000000 8.737400e-01
466.500000 8.757000e-01
467.000000 8.777300e-01
467.500000 8.803300e-01
468.000000 8.831400e-01
468.500000 8.862600e-01
469.000000 8.887000e-01
469.500000 8.914500e-01
470.000000 8.943000e-01
470.500000 8.970700e-01
471.000000 8.998000e-01
471.500000 9.023700e-01
472.000000 9.046700e-01
472.500000 9.065800e-01
473.000000 9.082800e-01
473.500000 9.094700e-01
474.000000 9.107100e-01
474.500000 9.116300e-01
475.000000 9.117900e-01
475.500000 9.115700e-01
476.000000 9.107100e-01
476.500000 9.094600e-01
477.000000 9.075400e-01
477.500000 9.052100e-01
478.000000 9.022100e-01
478.500000 8.987500e-01
479.000000 8.949200e-01
479.500000 8.904000e-01
480.000000 8.857300e-01
480.500000 8.802700e-01
481.000000 8.748600e-01
481.500000 8.694300e-01
482.000000 8.645400e-01
482.500000 8.597900e-01
483.000000 8.550200e-01
483.500000 8.504600e-01
484.000000 8.463400e-01
484.500000 8.428500e-01
485.000000 8.399500e-01
485.500000 8.381100e-01
486.000000 8.374300e-01
486.500000 8.372500e-01
487.000000 8.384000e-01
487.500000 8.403800e-01
488.000000 8.439300e-01
488.500000 8.484600e-01
489.000000 8.532300e-01
489.500000 8.587700e-01
490.000000 8.643200e-01
490.500000 8.700600e-01
491.000000 8.749300e-01
491.500000 8.793600e-01
492.000000 8.817700e-01
492.500000 8.826400e-01
493.000000 8.810200e-01
493.500000 8.764000e-01
494.000000 8.686700e-01
494.500000 8.579900e-01
495.000000 8.452500e-01
495.500000 8.303100e-01
496.000000 8.137400e-01
496.500000 7.960700e-01
497.000000 7.784000e-01
497.500000 7.621400e-01
498.000000 7.478900e-01
498.500000 7.372500e-01
499.000000 7.307000e-01
499.500000 7.292000e-01
500.000000 7.337100e-01
500.500000 7.452500e-01
501.000000 7.643200e-01
501.500000 7.902700e-01
502.000000 8.202100e-01
502.500000 8.489200e-01
503.000000 8.656300e-01
503.500000 8.586400e-01
504.000000 8.210400e-01
504.500000 7.487400e-01
505.000000 6.437400e-01
505.500000 5.201600e-01
506.000000 3.961100e-01
506.500000 2.880200e-01
507.000000 2.043600e-01
507.500000 1.434700e-01
508.000000 1.017100e-01
508.500000 7.265000e-02
509.000000 5.231000e-02
509.500000 3.817000e-02
510.000000 2.804000e-02
510.500000 2.091000e-02
511.000000 1.591000e-02
511.500000 1.221000e-02
512.000000 9.490000e-03
512.500000 7.430000e-03
513.000000 5.880000e-03
513.500000 4.710000e-03
514.000000 3.760000e-03
514.500000 3.050000e-03
515.000000 2.490000e-03
515.500000 2.030000e-03
516.000000 1.680000e-03
516.500000 1.390000e-03
517.000000 1.150000e-03
517.500000 9.700000e-04
518.000000 8.100000e-04
518.500000 6.900000e-04
519.000000 5.800000e-04
520.000000 4.300000e-04
521.000000 3.100000e-04
522.500000 2.100000e-04
665.500000 8.000000e-05
667.500000 1.800000e-04
668.500000 3.100000e-04
669.000000 4.300000e-04
669.500000 6.000000e-04
670.000000 9.200000e-04
670.500000 1.470000e-03
671.000000 2.320000e-03
671.500000 3.400000e-03
672.000000 4.290000e-03
672.500000 4.550000e-03
673.000000 4.040000e-03
673.500000 3.070000e-03
674.000000 2.120000e-03
674.500000 1.450000e-03
675.000000 1.040000e-03
675.500000 7.800000e-04
676.000000 6.100000e-04
677.000000 4.400000e-04
678.000000 3.400000e-04
689.500000 2.300000e-04
692.000000 3.600000e-04
693.500000 4.700000e-04
697.000000 6.000000e-04
698.500000 4.700000e-04
700.000000 3.200000e-04
701.500000 2.000000e-04
704.500000 1.000000e-04
