# curve data: 843.dat
#TITLE=FILTER 843  Transmission Curve;DTITL= 2.0;LABX=Lambda [nm];LABY=Transmission;DLABL= 1.0;NGEOM;USER;GRID;XSPACE=0
# source: https://www.eso.org/sci/facilities/lasilla/instruments/wfi/inst/filters.html
474.000000 1.000000e-05
478.500000 1.100000e-04
479.000000 2.100000e-04
479.500000 3.500000e-04
480.000000 6.200000e-04
480.500000 1.070000e-03
481.000000 1.790000e-03
481.500000 2.890000e-03
482.000000 4.400000e-03
482.500000 6.460000e-03
483.000000 9.370000e-03
483.500000 1.339000e-02
484.000000 1.870000e-02
484.500000 2.562000e-02
485.000000 3.443000e-02
485.500000 4.494000e-02
486.000000 5.739000e-02
486.500000 7.181000e-02
487.000000 8.767000e-02
487.500000 1.054800e-01
488.000000 1.250100e-01
488.500000 1.456700e-01
489.000000 1.672800e-01
489.500000 1.893400e-01
490.000000 2.116700e-01
490.500000 2.343900e-01
491.000000 2.574000e-01
491.500000 2.805400e-01
492.000000 3.035100e-01
492.500000 3.265200e-01
493.000000 3.494000e-01
493.500000 3.721800e-01
494.000000 3.950900e-01
494.500000 4.183800e-01
495.000000 4.406900e-01
495.500000 4.629300e-01
496.000000 4.851300e-01
496.500000 5.072200e-01
497.000000 5.289700e-01
497.500000 5.507400e-01
498.000000 5.718000e-01
498.500000 5.927500e-01
499.000000 6.125800e-01
499.500000 6.318700e-01
500.000000 6.503000e-01
500.500000 6.680900e-01
501.000000 6.846100e-01
501.500000 6.998200e-01
502.000000 7.136600e-01
502.500000 7.261300e-01
503.000000 7.369000e-01
503.500000 7.459200e-01
504.000000 7.532900e-01
504.500000 7.593800e-01
505.000000 7.648000e-01
505.500000 7.689500e-01
506.000000 7.720400e-01
506.500000 7.739900e-01
507.000000 7.755000e-01
507.500000 7.759300e-01
508.000000 7.762200e-01
509.000000 7.760300e-01
509.500000 7.758800e-01
510.000000 7.760900e-01
510.500000 7.764900e-01
511.000000 7.772500e-01
511.500000 7.783400e-01
512.000000 7.802700e-01
512.500000 7.824200e-01
513.000000 7.855700e-01
513.500000 7.886100e-01
514.000000 7.930300e-01
514.500000 7.971100e-01
515.000000 8.018100e-01
515.500000 8.072500e-01
516.000000 8.127100e-01
516.500000 8.186500e-01
517.000000 8.247000e-01
517.500000 8.307000e-01
518.000000 8.363000e-01
518.500000 8.420700e-01
519.000000 8.474000e-01
519.500000 8.524000e-01
520.000000 8.565700e-01
520.500000 8.605900e-01
521.000000 8.638500e-01
521.500000 8.662200e-01
522.000000 8.680800e-01
522.500000 8.693000e-01
523.000000 8.696600e-01
523.500000 8.693500e-01
524.000000 8.683000e-01
524.500000 8.665200e-01
525.000000 8.645300e-01
525.500000 8.621700e-01
526.000000 8.594700e-01
526.500000 8.561200e-01
527.000000 8.527000e-01
527.500000 8.490200e-01
528.000000 8.454800e-01
528.500000 8.416600e-01
529.000000 8.376900e-01
529.500000 8.340300e-01
530.000000 8.305900e-01
530.500000 8.273800e-01
531.000000 8.243600e-01
531.500000 8.216900e-01
532.000000 8.192400e-01
532.500000 8.171000e-01
533.000000 8.153700e-01
533.500000 8.139100e-01
534.000000 8.127400e-01
534.500000 8.119400e-01
535.000000 8.112700e-01
535.500000 8.109100e-01
536.000000 8.106400e-01
536.500000 8.102900e-01
537.000000 8.104700e-01
538.000000 8.107400e-01
539.000000 8.110800e-01
539.500000 8.113300e-01
540.000000 8.115900e-01
541.000000 8.114200e-01
541.500000 8.112600e-01
542.000000 8.110500e-01
542.500000 8.106500e-01
543.000000 8.102700e-01
543.500000 8.092300e-01
544.000000 8.085100e-01
544.500000 8.073400e-01
545.000000 8.062300e-01
545.500000 8.048100e-01
546.000000 8.033200e-01
546.500000 8.015900e-01
547.000000 7.999300e-01
547.500000 7.979900e-01
548.000000 7.960600e-01
548.500000 7.939900e-01
549.000000 7.913500e-01
549.500000 7.888600e-01
550.000000 7.860300e-01
550.500000 7.831200e-01
551.000000 7.800700e-01
551.500000 7.766500e-01
552.000000 7.733400e-01
552.500000 7.699700e-01
553.000000 7.663600e-01
553.500000 7.628500e-01
554.000000 7.588200e-01
554.500000 7.550500e-01
555.000000 7.512600e-01
555.500000 7.473000e-01
556.000000 7.432400e-01
556.500000 7.396300e-01
557.000000 7.353100e-01
557.500000 7.313500e-01
558.000000 7.270900e-01
558.500000 7.229000e-01
559.000000 7.188800e-01
559.500000 7.145300e-01
560.000000 7.104100e-01
560.500000 7.063200e-01
561.000000 7.021200e-01
561.500000 6.976600e-01
562.000000 6.932900e-01
562.500000 6.886900e-01
563.000000 6.842700e-01
563.500000 6.796200e-01
564.000000 6.746100e-01
564.500000 6.698400e-01
565.000000 6.646600e-01
565.500000 6.593400e-01
566.000000 6.539300e-01
566.500000 6.482300e-01
567.000000 6.426300e-01
567.500000 6.365000e-01
568.000000 6.306000e-01
568.500000 6.249100e-01
569.000000 6.192400e-01
569.500000 6.131000e-01
570.000000 6.065800e-01
570.500000 5.997900e-01
571.000000 5.927600e-01
571.500000 5.857700e-01
572.000000 5.788700e-01
572.500000 5.717000e-01
573.000000 5.646800e-01
573.500000 5.576100e-01
574.000000 5.505100e-01
574.500000 5.432200e-01
575.000000 5.361000e-01
575.500000 5.292800e-01
576.000000 5.222100e-01
576.500000 5.154700e-01
577.000000 5.086900e-01
577.500000 5.020100e-01
578.000000 4.955000e-01
578.500000 4.888900e-01
579.000000 4.826700e-01
579.500000 4.765400e-01
580.000000 4.706400e-01
580.500000 4.649900e-01
581.000000 4.597900e-01
581.500000 4.550700e-01
582.000000 4.507600e-01
582.500000 4.467900e-01
583.000000 4.433700e-01
583.500000 4.400900e-01
584.000000 4.369000e-01
584.500000 4.334400e-01
585.000000 4.290200e-01
585.500000 4.227400e-01
586.000000 4.135900e-01
586.500000 4.000500e-01
587.000000 3.813300e-01
587.500000 3.565900e-01
588.000000 3.261500e-01
588.500000 2.907100e-01
589.000000 2.515400e-01
589.500000 2.129200e-01
590.000000 1.777200e-01
590.500000 1.465300e-01
591.000000 1.186000e-01
591.500000 9.345000e-02
592.000000 7.275000e-02
592.500000 5.610000e-02
593.000000 4.302000e-02
593.500000 3.294000e-02
594.000000 2.524000e-02
594.500000 1.949000e-02
595.000000 1.515000e-02
595.500000 1.179000e-02
596.000000 9.220000e-03
596.500000 7.220000e-03
597.000000 5.690000e-03
597.500000 4.540000e-03
598.000000 3.630000e-03
598.500000 2.920000e-03
599.000000 2.360000e-03
599.500000 1.920000e-03
600.000000 1.580000e-03
600.500000 1.290000e-03
601.000000 1.070000e-03
601.500000 8.800000e-04
602.000000 7.300000e-04
603.000000 5.000000e-04
604.000000 3.600000e-04
605.500000 2.200000e-04
608.000000 1.200000e-04
